                   ****************************************
                     MINI-NUMERICAL ELECTROMAGNETICS CODE
                                   MININEC
                   ****************************************

FREQUENCY (MHZ): 7.15
    WAVE LENGTH =  41.93007  METERS

ENVIRONMENT (+1 FOR FREE SPACE, -1 FOR GROUND PLANE): -1
 NUMBER OF MEDIA (0 FOR PERFECTLY CONDUCTING GROUND):  0

NO. OF GEO-OBJECTS: 1

WIRE NO. 1
            COORDINATES                                 END         NO. OF
   X             Y             Z          RADIUS     CONNECTION     SEGMENTS
 0             0             0                         -1
 0             0             10.0838       .0127        0             20

                  **** ANTENNA GEOMETRY ****

WIRE NO.  1 COORDINATES                                 CONNECTION PULSE
X             Y             Z             RADIUS        END1 END2  NO.
 0             0             0             .0127        -1    1   1
 0             0             .50419        .0127         1    1   2
 0             0             1.00838       .0127         1    1   3
 0             0             1.51257       .0127         1    1   4
 0             0             2.01676       .0127         1    1   5
 0             0             2.52095       .0127         1    1   6
 0             0             3.02514       .0127         1    1   7
 0             0             3.52933       .0127         1    1   8
 0             0             4.03352       .0127         1    1   9
 0             0             4.53771       .0127         1    1  10
 0             0             5.0419        .0127         1    1  11
 0             0             5.54609       .0127         1    1  12
 0             0             6.05028       .0127         1    1  13
 0             0             6.55447       .0127         1    1  14
 0             0             7.05866       .0127         1    1  15
 0             0             7.56285       .0127         1    1  16
 0             0             8.06704       .0127         1    1  17
 0             0             8.57123       .0127         1    1  18
 0             0             9.07542       .0127         1    1  19
 0             0             9.57961       .0127         1    0  20

NO. OF SOURCES :  1
PULSE NO., VOLTAGE MAGNITUDE, PHASE (DEGREES):  1 , 1 , 0
NUMBER OF LOADS 0

********************    SOURCE DATA     ********************
PULSE  1      VOLTAGE = ( 1 , 0 J)
              CURRENT = ( 2.790223E-02 ,  5.983541E-04 J)
              IMPEDANCE = ( 35.82295 , -.768211  J)
              POWER =  1.395112E-02  WATTS

********************    CURRENT DATA    ********************

WIRE NO.  1 :
PULSE         REAL          IMAGINARY     MAGNITUDE     PHASE
 NO.          (AMPS)        (AMPS)        (AMPS)        (DEGREES)
 1             2.790223E-02  5.983541E-04  2.790865E-02  1.228501 
 2             2.782316E-02  2.452580E-04  2.782424E-02  .505043  
 3             2.758631E-02 -2.486729E-06  2.758631E-02 -5.164848E-03 
 4             2.719286E-02 -2.096393E-04  2.719366E-02 -.441705  
 5             2.664471E-02 -3.862036E-04  2.664751E-02 -.83042   
 6             2.594454E-02 -5.360628E-04  2.595007E-02 -1.18367  
 7             2.509570E-02 -6.610295E-04  2.510441E-02 -1.508842 
 8             2.410227E-02 -7.620554E-04  2.411432E-02 -1.81095  
 9             2.296892E-02 -8.396929E-04  2.298426E-02 -2.093675 
 10            2.170089E-02 -8.943044E-04  2.171931E-02 -2.359852 
 11            2.030392E-02 -9.261688E-04  2.032504E-02 -2.611752 
 12            1.878412E-02 -9.355357E-04  1.880740E-02 -2.851238 
 13            1.714782E-02 -9.226526E-04  1.717262E-02 -3.079877 
 14            1.540139E-02 -8.877710E-04  1.542695E-02 -3.299009 
 15            1.355088E-02 -8.311347E-04  1.357634E-02 -3.509804 
 16            1.160152E-02 -7.529428E-04  1.162593E-02 -3.713309 
 17            9.556737E-03 -6.532702E-04  9.579039E-03 -3.910486 
 18            7.416101E-03 -5.318901E-04  7.435151E-03 -4.102286 
 19            5.170176E-03 -3.878208E-04  5.184701E-03 -4.289789 
 20            2.783613E-03 -2.178558E-04  2.792125E-03 -4.475057 
E              0             0             0             0

********************     FAR FIELD      ********************

NEW POWER LEVEL =  100
ZENITH ANGLE : INITIAL,INCREMENT,NUMBER: 0 , 5 , 19
AZIMUTH ANGLE: INITIAL,INCREMENT,NUMBER: 0 , 10 , 37

********************    PATTERN DATA    ********************
              RADIAL DISTANCE =  1000  METERS
              POWER LEVEL =  100  WATTS
ZENITH   AZIMUTH                 E(THETA)                    E(PHI)
 ANGLE    ANGLE              MAG(V/M)    PHASE(DEG)      MAG(V/M)    PHASE(DEG)
  0.00      0.00            0.000E+00     0.00           0.000E+00     0.00
  5.00      0.00            9.688E-03    88.66           0.000E+00     0.00
 10.00      0.00            1.941E-02    88.65           0.000E+00     0.00
 15.00      0.00            2.918E-02    88.64           0.000E+00     0.00
 20.00      0.00            3.903E-02    88.62           0.000E+00     0.00
 25.00      0.00            4.893E-02    88.59           0.000E+00     0.00
 30.00      0.00            5.888E-02    88.56           0.000E+00     0.00
 35.00      0.00            6.881E-02    88.53           0.000E+00     0.00
 40.00      0.00            7.865E-02    88.50           0.000E+00     0.00
 45.00      0.00            8.828E-02    88.47           0.000E+00     0.00
 50.00      0.00            9.758E-02    88.44           0.000E+00     0.00
 55.00      0.00            1.064E-01    88.41           0.000E+00     0.00
 60.00      0.00            1.145E-01    88.39           0.000E+00     0.00
 65.00      0.00            1.218E-01    88.36           0.000E+00     0.00
 70.00      0.00            1.281E-01    88.34           0.000E+00     0.00
 75.00      0.00            1.332E-01    88.33           0.000E+00     0.00
 80.00      0.00            1.369E-01    88.31           0.000E+00     0.00
 85.00      0.00            1.392E-01    88.31           0.000E+00     0.00
 90.00      0.00            1.399E-01    88.30           0.000E+00     0.00
  0.00     10.00            0.000E+00     0.00           0.000E+00     0.00
  5.00     10.00            9.688E-03    88.66           0.000E+00     0.00
 10.00     10.00            1.941E-02    88.65           0.000E+00     0.00
 15.00     10.00            2.918E-02    88.64           0.000E+00     0.00
 20.00     10.00            3.903E-02    88.62           0.000E+00     0.00
 25.00     10.00            4.893E-02    88.59           0.000E+00     0.00
 30.00     10.00            5.888E-02    88.56           0.000E+00     0.00
 35.00     10.00            6.881E-02    88.53           0.000E+00     0.00
 40.00     10.00            7.865E-02    88.50           0.000E+00     0.00
 45.00     10.00            8.828E-02    88.47           0.000E+00     0.00
 50.00     10.00            9.758E-02    88.44           0.000E+00     0.00
 55.00     10.00            1.064E-01    88.41           0.000E+00     0.00
 60.00     10.00            1.145E-01    88.39           0.000E+00     0.00
 65.00     10.00            1.218E-01    88.36           0.000E+00     0.00
 70.00     10.00            1.281E-01    88.34           0.000E+00     0.00
 75.00     10.00            1.332E-01    88.33           0.000E+00     0.00
 80.00     10.00            1.369E-01    88.31           0.000E+00     0.00
 85.00     10.00            1.392E-01    88.31           0.000E+00     0.00
 90.00     10.00            1.399E-01    88.30           0.000E+00     0.00
  0.00     20.00            0.000E+00     0.00           0.000E+00     0.00
  5.00     20.00            9.688E-03    88.66           0.000E+00     0.00
 10.00     20.00            1.941E-02    88.65           0.000E+00     0.00
 15.00     20.00            2.918E-02    88.64           0.000E+00     0.00
 20.00     20.00            3.903E-02    88.62           0.000E+00     0.00
 25.00     20.00            4.893E-02    88.59           0.000E+00     0.00
 30.00     20.00            5.888E-02    88.56           0.000E+00     0.00
 35.00     20.00            6.881E-02    88.53           0.000E+00     0.00
 40.00     20.00            7.865E-02    88.50           0.000E+00     0.00
 45.00     20.00            8.828E-02    88.47           0.000E+00     0.00
 50.00     20.00            9.758E-02    88.44           0.000E+00     0.00
 55.00     20.00            1.064E-01    88.41           0.000E+00     0.00
 60.00     20.00            1.145E-01    88.39           0.000E+00     0.00
 65.00     20.00            1.218E-01    88.36           0.000E+00     0.00
 70.00     20.00            1.281E-01    88.34           0.000E+00     0.00
 75.00     20.00            1.332E-01    88.33           0.000E+00     0.00
 80.00     20.00            1.369E-01    88.31           0.000E+00     0.00
 85.00     20.00            1.392E-01    88.31           0.000E+00     0.00
 90.00     20.00            1.399E-01    88.30           0.000E+00     0.00
  0.00     30.00            0.000E+00     0.00           0.000E+00     0.00
  5.00     30.00            9.688E-03    88.66           0.000E+00     0.00
 10.00     30.00            1.941E-02    88.65           0.000E+00     0.00
 15.00     30.00            2.918E-02    88.64           0.000E+00     0.00
 20.00     30.00            3.903E-02    88.62           0.000E+00     0.00
 25.00     30.00            4.893E-02    88.59           0.000E+00     0.00
 30.00     30.00            5.888E-02    88.56           0.000E+00     0.00
 35.00     30.00            6.881E-02    88.53           0.000E+00     0.00
 40.00     30.00            7.865E-02    88.50           0.000E+00     0.00
 45.00     30.00            8.828E-02    88.47           0.000E+00     0.00
 50.00     30.00            9.758E-02    88.44           0.000E+00     0.00
 55.00     30.00            1.064E-01    88.41           0.000E+00     0.00
 60.00     30.00            1.145E-01    88.39           0.000E+00     0.00
 65.00     30.00            1.218E-01    88.36           0.000E+00     0.00
 70.00     30.00            1.281E-01    88.34           0.000E+00     0.00
 75.00     30.00            1.332E-01    88.33           0.000E+00     0.00
 80.00     30.00            1.369E-01    88.31           0.000E+00     0.00
 85.00     30.00            1.392E-01    88.31           0.000E+00     0.00
 90.00     30.00            1.399E-01    88.30           0.000E+00     0.00
  0.00     40.00            0.000E+00     0.00           0.000E+00     0.00
  5.00     40.00            9.688E-03    88.66           0.000E+00     0.00
 10.00     40.00            1.941E-02    88.65           0.000E+00     0.00
 15.00     40.00            2.918E-02    88.64           0.000E+00     0.00
 20.00     40.00            3.903E-02    88.62           0.000E+00     0.00
 25.00     40.00            4.893E-02    88.59           0.000E+00     0.00
 30.00     40.00            5.888E-02    88.56           0.000E+00     0.00
 35.00     40.00            6.881E-02    88.53           0.000E+00     0.00
 40.00     40.00            7.865E-02    88.50           0.000E+00     0.00
 45.00     40.00            8.828E-02    88.47           0.000E+00     0.00
 50.00     40.00            9.758E-02    88.44           0.000E+00     0.00
 55.00     40.00            1.064E-01    88.41           0.000E+00     0.00
 60.00     40.00            1.145E-01    88.39           0.000E+00     0.00
 65.00     40.00            1.218E-01    88.36           0.000E+00     0.00
 70.00     40.00            1.281E-01    88.34           0.000E+00     0.00
 75.00     40.00            1.332E-01    88.33           0.000E+00     0.00
 80.00     40.00            1.369E-01    88.31           0.000E+00     0.00
 85.00     40.00            1.392E-01    88.31           0.000E+00     0.00
 90.00     40.00            1.399E-01    88.30           0.000E+00     0.00
  0.00     50.00            0.000E+00     0.00           0.000E+00     0.00
  5.00     50.00            9.688E-03    88.66           0.000E+00     0.00
 10.00     50.00            1.941E-02    88.65           0.000E+00     0.00
 15.00     50.00            2.918E-02    88.64           0.000E+00     0.00
 20.00     50.00            3.903E-02    88.62           0.000E+00     0.00
 25.00     50.00            4.893E-02    88.59           0.000E+00     0.00
 30.00     50.00            5.888E-02    88.56           0.000E+00     0.00
 35.00     50.00            6.881E-02    88.53           0.000E+00     0.00
 40.00     50.00            7.865E-02    88.50           0.000E+00     0.00
 45.00     50.00            8.828E-02    88.47           0.000E+00     0.00
 50.00     50.00            9.758E-02    88.44           0.000E+00     0.00
 55.00     50.00            1.064E-01    88.41           0.000E+00     0.00
 60.00     50.00            1.145E-01    88.39           0.000E+00     0.00
 65.00     50.00            1.218E-01    88.36           0.000E+00     0.00
 70.00     50.00            1.281E-01    88.34           0.000E+00     0.00
 75.00     50.00            1.332E-01    88.33           0.000E+00     0.00
 80.00     50.00            1.369E-01    88.31           0.000E+00     0.00
 85.00     50.00            1.392E-01    88.31           0.000E+00     0.00
 90.00     50.00            1.399E-01    88.30           0.000E+00     0.00
  0.00     60.00            0.000E+00     0.00           0.000E+00     0.00
  5.00     60.00            9.688E-03    88.66           0.000E+00     0.00
 10.00     60.00            1.941E-02    88.65           0.000E+00     0.00
 15.00     60.00            2.918E-02    88.64           0.000E+00     0.00
 20.00     60.00            3.903E-02    88.62           0.000E+00     0.00
 25.00     60.00            4.893E-02    88.59           0.000E+00     0.00
 30.00     60.00            5.888E-02    88.56           0.000E+00     0.00
 35.00     60.00            6.881E-02    88.53           0.000E+00     0.00
 40.00     60.00            7.865E-02    88.50           0.000E+00     0.00
 45.00     60.00            8.828E-02    88.47           0.000E+00     0.00
 50.00     60.00            9.758E-02    88.44           0.000E+00     0.00
 55.00     60.00            1.064E-01    88.41           0.000E+00     0.00
 60.00     60.00            1.145E-01    88.39           0.000E+00     0.00
 65.00     60.00            1.218E-01    88.36           0.000E+00     0.00
 70.00     60.00            1.281E-01    88.34           0.000E+00     0.00
 75.00     60.00            1.332E-01    88.33           0.000E+00     0.00
 80.00     60.00            1.369E-01    88.31           0.000E+00     0.00
 85.00     60.00            1.392E-01    88.31           0.000E+00     0.00
 90.00     60.00            1.399E-01    88.30           0.000E+00     0.00
  0.00     70.00            0.000E+00     0.00           0.000E+00     0.00
  5.00     70.00            9.688E-03    88.66           0.000E+00     0.00
 10.00     70.00            1.941E-02    88.65           0.000E+00     0.00
 15.00     70.00            2.918E-02    88.64           0.000E+00     0.00
 20.00     70.00            3.903E-02    88.62           0.000E+00     0.00
 25.00     70.00            4.893E-02    88.59           0.000E+00     0.00
 30.00     70.00            5.888E-02    88.56           0.000E+00     0.00
 35.00     70.00            6.881E-02    88.53           0.000E+00     0.00
 40.00     70.00            7.865E-02    88.50           0.000E+00     0.00
 45.00     70.00            8.828E-02    88.47           0.000E+00     0.00
 50.00     70.00            9.758E-02    88.44           0.000E+00     0.00
 55.00     70.00            1.064E-01    88.41           0.000E+00     0.00
 60.00     70.00            1.145E-01    88.39           0.000E+00     0.00
 65.00     70.00            1.218E-01    88.36           0.000E+00     0.00
 70.00     70.00            1.281E-01    88.34           0.000E+00     0.00
 75.00     70.00            1.332E-01    88.33           0.000E+00     0.00
 80.00     70.00            1.369E-01    88.31           0.000E+00     0.00
 85.00     70.00            1.392E-01    88.31           0.000E+00     0.00
 90.00     70.00            1.399E-01    88.30           0.000E+00     0.00
  0.00     80.00            0.000E+00     0.00           0.000E+00     0.00
  5.00     80.00            9.688E-03    88.66           0.000E+00     0.00
 10.00     80.00            1.941E-02    88.65           0.000E+00     0.00
 15.00     80.00            2.918E-02    88.64           0.000E+00     0.00
 20.00     80.00            3.903E-02    88.62           0.000E+00     0.00
 25.00     80.00            4.893E-02    88.59           0.000E+00     0.00
 30.00     80.00            5.888E-02    88.56           0.000E+00     0.00
 35.00     80.00            6.881E-02    88.53           0.000E+00     0.00
 40.00     80.00            7.865E-02    88.50           0.000E+00     0.00
 45.00     80.00            8.828E-02    88.47           0.000E+00     0.00
 50.00     80.00            9.758E-02    88.44           0.000E+00     0.00
 55.00     80.00            1.064E-01    88.41           0.000E+00     0.00
 60.00     80.00            1.145E-01    88.39           0.000E+00     0.00
 65.00     80.00            1.218E-01    88.36           0.000E+00     0.00
 70.00     80.00            1.281E-01    88.34           0.000E+00     0.00
 75.00     80.00            1.332E-01    88.33           0.000E+00     0.00
 80.00     80.00            1.369E-01    88.31           0.000E+00     0.00
 85.00     80.00            1.392E-01    88.31           0.000E+00     0.00
 90.00     80.00            1.399E-01    88.30           0.000E+00     0.00
  0.00     90.00            0.000E+00     0.00           0.000E+00     0.00
  5.00     90.00            9.688E-03    88.66           0.000E+00     0.00
 10.00     90.00            1.941E-02    88.65           0.000E+00     0.00
 15.00     90.00            2.918E-02    88.64           0.000E+00     0.00
 20.00     90.00            3.903E-02    88.62           0.000E+00     0.00
 25.00     90.00            4.893E-02    88.59           0.000E+00     0.00
 30.00     90.00            5.888E-02    88.56           0.000E+00     0.00
 35.00     90.00            6.881E-02    88.53           0.000E+00     0.00
 40.00     90.00            7.865E-02    88.50           0.000E+00     0.00
 45.00     90.00            8.828E-02    88.47           0.000E+00     0.00
 50.00     90.00            9.758E-02    88.44           0.000E+00     0.00
 55.00     90.00            1.064E-01    88.41           0.000E+00     0.00
 60.00     90.00            1.145E-01    88.39           0.000E+00     0.00
 65.00     90.00            1.218E-01    88.36           0.000E+00     0.00
 70.00     90.00            1.281E-01    88.34           0.000E+00     0.00
 75.00     90.00            1.332E-01    88.33           0.000E+00     0.00
 80.00     90.00            1.369E-01    88.31           0.000E+00     0.00
 85.00     90.00            1.392E-01    88.31           0.000E+00     0.00
 90.00     90.00            1.399E-01    88.30           0.000E+00     0.00
  0.00    100.00            0.000E+00     0.00           0.000E+00     0.00
  5.00    100.00            9.688E-03    88.66           0.000E+00     0.00
 10.00    100.00            1.941E-02    88.65           0.000E+00     0.00
 15.00    100.00            2.918E-02    88.64           0.000E+00     0.00
 20.00    100.00            3.903E-02    88.62           0.000E+00     0.00
 25.00    100.00            4.893E-02    88.59           0.000E+00     0.00
 30.00    100.00            5.888E-02    88.56           0.000E+00     0.00
 35.00    100.00            6.881E-02    88.53           0.000E+00     0.00
 40.00    100.00            7.865E-02    88.50           0.000E+00     0.00
 45.00    100.00            8.828E-02    88.47           0.000E+00     0.00
 50.00    100.00            9.758E-02    88.44           0.000E+00     0.00
